#   T(K)    C_v(k_B/fu)        Gamma     alpha_v*10^6(K^-1)   E_th(eV)                       P_th(GPa)
#                                                                         ----------------------------------------------
#                                                                          {sum G_i.U_iV}  {int G.C_v/V dT}    {G.U/V}
# ----------------------------------------------------------------------------------------------------------------------
    10           0.056           0.000           0.000           0.031           0.000           0.000           0.000
    20           0.755           0.000           0.000           0.031           0.000           0.000           0.000
    30           1.981           0.000           0.000           0.032           0.000           0.000           0.000
    40           3.050           0.000           0.000           0.034           0.000           0.000           0.000
    50           3.818           0.000           0.000           0.037           0.000           0.000           0.000
    60           4.349           0.000           0.000           0.041           0.000           0.000           0.000
    70           4.719           0.000           0.000           0.045           0.000           0.000           0.000
    80           4.983           0.000           0.000           0.049           0.000           0.000           0.000
    90           5.176           0.000           0.000           0.053           0.000           0.000           0.000
   100           5.320           0.000           0.000           0.058           0.000           0.000           0.000
   110           5.430           0.000           0.000           0.063           0.000           0.000           0.000
   120           5.516           0.000           0.000           0.067           0.000           0.000           0.000
   130           5.584           0.000           0.000           0.072           0.000           0.000           0.000
   140           5.639           0.000           0.000           0.077           0.000           0.000           0.000
   150           5.684           0.000           0.000           0.082           0.000           0.000           0.000
   160           5.721           0.000           0.000           0.087           0.000           0.000           0.000
   170           5.752           0.000           0.000           0.092           0.000           0.000           0.000
   180           5.778           0.000           0.000           0.097           0.000           0.000           0.000
   190           5.800           0.000           0.000           0.102           0.000           0.000           0.000
   200           5.819           0.000           0.000           0.107           0.000           0.000           0.000
   210           5.836           0.000           0.000           0.112           0.000           0.000           0.000
   220           5.850           0.000           0.000           0.117           0.000           0.000           0.000
   230           5.863           0.000           0.000           0.122           0.000           0.000           0.000
   240           5.874           0.000           0.000           0.127           0.000           0.000           0.000
   250           5.883           0.000           0.000           0.132           0.000           0.000           0.000
   260           5.892           0.000           0.000           0.137           0.000           0.000           0.000
   270           5.900           0.000           0.000           0.142           0.000           0.000           0.000
   280           5.907           0.000           0.000           0.147           0.000           0.000           0.000
   290           5.913           0.000           0.000           0.152           0.000           0.000           0.000
   300           5.919           0.000           0.000           0.157           0.000           0.000           0.000
   310           5.924           0.000           0.000           0.162           0.000           0.000           0.000
   320           5.928           0.000           0.000           0.167           0.000           0.000           0.000
   330           5.933           0.000           0.000           0.173           0.000           0.000           0.000
   340           5.937           0.000           0.000           0.178           0.000           0.000           0.000
   350           5.940           0.000           0.000           0.183           0.000           0.000           0.000
   360           5.943           0.000           0.000           0.188           0.000           0.000           0.000
   370           5.946           0.000           0.000           0.193           0.000           0.000           0.000
   380           5.949           0.000           0.000           0.198           0.000           0.000           0.000
   390           5.952           0.000           0.000           0.203           0.000           0.000           0.000
   400           5.954           0.000           0.000           0.208           0.000           0.000           0.000
   410           5.956           0.000           0.000           0.214           0.000           0.000           0.000
   420           5.958           0.000           0.000           0.219           0.000           0.000           0.000
   430           5.960           0.000           0.000           0.224           0.000           0.000           0.000
   440           5.962           0.000           0.000           0.229           0.000           0.000           0.000
   450           5.964           0.000           0.000           0.234           0.000           0.000           0.000
   460           5.965           0.000           0.000           0.239           0.000           0.000           0.000
   470           5.967           0.000           0.000           0.244           0.000           0.000           0.000
   480           5.968           0.000           0.000           0.250           0.000           0.000           0.000
   490           5.969           0.000           0.000           0.255           0.000           0.000           0.000
   500           5.971           0.000           0.000           0.260           0.000           0.000           0.000
   510           5.972           0.000           0.000           0.265           0.000           0.000           0.000
   520           5.973           0.000           0.000           0.270           0.000           0.000           0.000
   530           5.974           0.000           0.000           0.275           0.000           0.000           0.000
   540           5.975           0.000           0.000           0.280           0.000           0.000           0.000
   550           5.976           0.000           0.000           0.286           0.000           0.000           0.000
   560           5.976           0.000           0.000           0.291           0.000           0.000           0.000
   570           5.977           0.000           0.000           0.296           0.000           0.000           0.000
   580           5.978           0.000           0.000           0.301           0.000           0.000           0.000
   590           5.979           0.000           0.000           0.306           0.000           0.000           0.000
   600           5.980           0.000           0.000           0.311           0.000           0.000           0.000
   610           5.980           0.000           0.000           0.316           0.000           0.000           0.000
   620           5.981           0.000           0.000           0.322           0.000           0.000           0.000
   630           5.981           0.000           0.000           0.327           0.000           0.000           0.000
   640           5.982           0.000           0.000           0.332           0.000           0.000           0.000
   650           5.983           0.000           0.000           0.337           0.000           0.000           0.000
   660           5.983           0.000           0.000           0.342           0.000           0.000           0.000
   670           5.984           0.000           0.000           0.347           0.000           0.000           0.000
   680           5.984           0.000           0.000           0.353           0.000           0.000           0.000
   690           5.985           0.000           0.000           0.358           0.000           0.000           0.000
   700           5.985           0.000           0.000           0.363           0.000           0.000           0.000
   710           5.985           0.000           0.000           0.368           0.000           0.000           0.000
   720           5.986           0.000           0.000           0.373           0.000           0.000           0.000
   730           5.986           0.000           0.000           0.378           0.000           0.000           0.000
   740           5.987           0.000           0.000           0.383           0.000           0.000           0.000
   750           5.987           0.000           0.000           0.389           0.000           0.000           0.000
   760           5.987           0.000           0.000           0.394           0.000           0.000           0.000
   770           5.988           0.000           0.000           0.399           0.000           0.000           0.000
   780           5.988           0.000           0.000           0.404           0.000           0.000           0.000
   790           5.988           0.000           0.000           0.409           0.000           0.000           0.000
   800           5.988           0.000           0.000           0.414           0.000           0.000           0.000
   810           5.989           0.000           0.000           0.420           0.000           0.000           0.000
   820           5.989           0.000           0.000           0.425           0.000           0.000           0.000
   830           5.989           0.000           0.000           0.430           0.000           0.000           0.000
   840           5.990           0.000           0.000           0.435           0.000           0.000           0.000
   850           5.990           0.000           0.000           0.440           0.000           0.000           0.000
   860           5.990           0.000           0.000           0.445           0.000           0.000           0.000
   870           5.990           0.000           0.000           0.451           0.000           0.000           0.000
   880           5.990           0.000           0.000           0.456           0.000           0.000           0.000
   890           5.991           0.000           0.000           0.461           0.000           0.000           0.000
   900           5.991           0.000           0.000           0.466           0.000           0.000           0.000
   910           5.991           0.000           0.000           0.471           0.000           0.000           0.000
   920           5.991           0.000           0.000           0.476           0.000           0.000           0.000
   930           5.991           0.000           0.000           0.482           0.000           0.000           0.000
   940           5.992           0.000           0.000           0.487           0.000           0.000           0.000
   950           5.992           0.000           0.000           0.492           0.000           0.000           0.000
   960           5.992           0.000           0.000           0.497           0.000           0.000           0.000
   970           5.992           0.000           0.000           0.502           0.000           0.000           0.000
   980           5.992           0.000           0.000           0.507           0.000           0.000           0.000
   990           5.992           0.000           0.000           0.513           0.000           0.000           0.000
  1000           5.993           0.000           0.000           0.518           0.000           0.000           0.000
  1010           5.993           0.000           0.000           0.523           0.000           0.000           0.000
  1020           5.993           0.000           0.000           0.528           0.000           0.000           0.000
  1030           5.993           0.000           0.000           0.533           0.000           0.000           0.000
  1040           5.993           0.000           0.000           0.538           0.000           0.000           0.000
  1050           5.993           0.000           0.000           0.543           0.000           0.000           0.000
  1060           5.993           0.000           0.000           0.549           0.000           0.000           0.000
  1070           5.994           0.000           0.000           0.554           0.000           0.000           0.000
  1080           5.994           0.000           0.000           0.559           0.000           0.000           0.000
  1090           5.994           0.000           0.000           0.564           0.000           0.000           0.000
  1100           5.994           0.000           0.000           0.569           0.000           0.000           0.000
  1110           5.994           0.000           0.000           0.574           0.000           0.000           0.000
  1120           5.994           0.000           0.000           0.580           0.000           0.000           0.000
  1130           5.994           0.000           0.000           0.585           0.000           0.000           0.000
  1140           5.994           0.000           0.000           0.590           0.000           0.000           0.000
  1150           5.994           0.000           0.000           0.595           0.000           0.000           0.000
  1160           5.995           0.000           0.000           0.600           0.000           0.000           0.000
  1170           5.995           0.000           0.000           0.605           0.000           0.000           0.000
  1180           5.995           0.000           0.000           0.611           0.000           0.000           0.000
  1190           5.995           0.000           0.000           0.616           0.000           0.000           0.000
  1200           5.995           0.000           0.000           0.621           0.000           0.000           0.000
  1210           5.995           0.000           0.000           0.626           0.000           0.000           0.000
  1220           5.995           0.000           0.000           0.631           0.000           0.000           0.000
  1230           5.995           0.000           0.000           0.636           0.000           0.000           0.000
  1240           5.995           0.000           0.000           0.642           0.000           0.000           0.000
  1250           5.995           0.000           0.000           0.647           0.000           0.000           0.000
  1260           5.995           0.000           0.000           0.652           0.000           0.000           0.000
  1270           5.995           0.000           0.000           0.657           0.000           0.000           0.000
  1280           5.995           0.000           0.000           0.662           0.000           0.000           0.000
  1290           5.996           0.000           0.000           0.667           0.000           0.000           0.000
  1300           5.996           0.000           0.000           0.673           0.000           0.000           0.000
  1310           5.996           0.000           0.000           0.678           0.000           0.000           0.000
  1320           5.996           0.000           0.000           0.683           0.000           0.000           0.000
  1330           5.996           0.000           0.000           0.688           0.000           0.000           0.000
  1340           5.996           0.000           0.000           0.693           0.000           0.000           0.000
  1350           5.996           0.000           0.000           0.698           0.000           0.000           0.000
  1360           5.996           0.000           0.000           0.704           0.000           0.000           0.000
  1370           5.996           0.000           0.000           0.709           0.000           0.000           0.000
  1380           5.996           0.000           0.000           0.714           0.000           0.000           0.000
  1390           5.996           0.000           0.000           0.719           0.000           0.000           0.000
  1400           5.996           0.000           0.000           0.724           0.000           0.000           0.000
  1410           5.996           0.000           0.000           0.729           0.000           0.000           0.000
  1420           5.996           0.000           0.000           0.735           0.000           0.000           0.000
  1430           5.996           0.000           0.000           0.740           0.000           0.000           0.000
  1440           5.996           0.000           0.000           0.745           0.000           0.000           0.000
  1450           5.996           0.000           0.000           0.750           0.000           0.000           0.000
  1460           5.997           0.000           0.000           0.755           0.000           0.000           0.000
  1470           5.997           0.000           0.000           0.760           0.000           0.000           0.000
  1480           5.997           0.000           0.000           0.766           0.000           0.000           0.000
  1490           5.997           0.000           0.000           0.771           0.000           0.000           0.000
  1500           5.997           0.000           0.000           0.776           0.000           0.000           0.000
  1510           5.997           0.000           0.000           0.781           0.000           0.000           0.000
  1520           5.997           0.000           0.000           0.786           0.000           0.000           0.000
  1530           5.997           0.000           0.000           0.791           0.000           0.000           0.000
  1540           5.997           0.000           0.000           0.797           0.000           0.000           0.000
  1550           5.997           0.000           0.000           0.802           0.000           0.000           0.000
  1560           5.997           0.000           0.000           0.807           0.000           0.000           0.000
  1570           5.997           0.000           0.000           0.812           0.000           0.000           0.000
  1580           5.997           0.000           0.000           0.817           0.000           0.000           0.000
  1590           5.997           0.000           0.000           0.822           0.000           0.000           0.000
  1600           5.997           0.000           0.000           0.828           0.000           0.000           0.000
  1610           5.997           0.000           0.000           0.833           0.000           0.000           0.000
  1620           5.997           0.000           0.000           0.838           0.000           0.000           0.000
  1630           5.997           0.000           0.000           0.843           0.000           0.000           0.000
  1640           5.997           0.000           0.000           0.848           0.000           0.000           0.000
  1650           5.997           0.000           0.000           0.854           0.000           0.000           0.000
  1660           5.997           0.000           0.000           0.859           0.000           0.000           0.000
  1670           5.997           0.000           0.000           0.864           0.000           0.000           0.000
  1680           5.997           0.000           0.000           0.869           0.000           0.000           0.000
  1690           5.997           0.000           0.000           0.874           0.000           0.000           0.000
  1700           5.997           0.000           0.000           0.879           0.000           0.000           0.000
  1710           5.997           0.000           0.000           0.885           0.000           0.000           0.000
  1720           5.998           0.000           0.000           0.890           0.000           0.000           0.000
  1730           5.998           0.000           0.000           0.895           0.000           0.000           0.000
  1740           5.998           0.000           0.000           0.900           0.000           0.000           0.000
  1750           5.998           0.000           0.000           0.905           0.000           0.000           0.000
  1760           5.998           0.000           0.000           0.910           0.000           0.000           0.000
  1770           5.998           0.000           0.000           0.916           0.000           0.000           0.000
  1780           5.998           0.000           0.000           0.921           0.000           0.000           0.000
  1790           5.998           0.000           0.000           0.926           0.000           0.000           0.000
  1800           5.998           0.000           0.000           0.931           0.000           0.000           0.000
  1810           5.998           0.000           0.000           0.936           0.000           0.000           0.000
  1820           5.998           0.000           0.000           0.941           0.000           0.000           0.000
  1830           5.998           0.000           0.000           0.947           0.000           0.000           0.000
  1840           5.998           0.000           0.000           0.952           0.000           0.000           0.000
  1850           5.998           0.000           0.000           0.957           0.000           0.000           0.000
  1860           5.998           0.000           0.000           0.962           0.000           0.000           0.000
  1870           5.998           0.000           0.000           0.967           0.000           0.000           0.000
  1880           5.998           0.000           0.000           0.972           0.000           0.000           0.000
  1890           5.998           0.000           0.000           0.978           0.000           0.000           0.000
  1900           5.998           0.000           0.000           0.983           0.000           0.000           0.000
  1910           5.998           0.000           0.000           0.988           0.000           0.000           0.000
  1920           5.998           0.000           0.000           0.993           0.000           0.000           0.000
  1930           5.998           0.000           0.000           0.998           0.000           0.000           0.000
  1940           5.998           0.000           0.000           1.003           0.000           0.000           0.000
  1950           5.998           0.000           0.000           1.009           0.000           0.000           0.000
  1960           5.998           0.000           0.000           1.014           0.000           0.000           0.000
  1970           5.998           0.000           0.000           1.019           0.000           0.000           0.000
  1980           5.998           0.000           0.000           1.024           0.000           0.000           0.000
  1990           5.998           0.000           0.000           1.029           0.000           0.000           0.000
  2000           5.998           0.000           0.000           1.034           0.000           0.000           0.000
  2010           5.998           0.000           0.000           1.040           0.000           0.000           0.000
  2020           5.998           0.000           0.000           1.045           0.000           0.000           0.000
  2030           5.998           0.000           0.000           1.050           0.000           0.000           0.000
  2040           5.998           0.000           0.000           1.055           0.000           0.000           0.000
  2050           5.998           0.000           0.000           1.060           0.000           0.000           0.000
  2060           5.998           0.000           0.000           1.065           0.000           0.000           0.000
  2070           5.998           0.000           0.000           1.071           0.000           0.000           0.000
  2080           5.998           0.000           0.000           1.076           0.000           0.000           0.000
  2090           5.998           0.000           0.000           1.081           0.000           0.000           0.000
  2100           5.998           0.000           0.000           1.086           0.000           0.000           0.000
  2110           5.998           0.000           0.000           1.091           0.000           0.000           0.000
  2120           5.998           0.000           0.000           1.096           0.000           0.000           0.000
  2130           5.998           0.000           0.000           1.102           0.000           0.000           0.000
  2140           5.998           0.000           0.000           1.107           0.000           0.000           0.000
  2150           5.998           0.000           0.000           1.112           0.000           0.000           0.000
  2160           5.998           0.000           0.000           1.117           0.000           0.000           0.000
  2170           5.998           0.000           0.000           1.122           0.000           0.000           0.000
  2180           5.998           0.000           0.000           1.127           0.000           0.000           0.000
  2190           5.998           0.000           0.000           1.133           0.000           0.000           0.000
  2200           5.998           0.000           0.000           1.138           0.000           0.000           0.000
  2210           5.998           0.000           0.000           1.143           0.000           0.000           0.000
  2220           5.999           0.000           0.000           1.148           0.000           0.000           0.000
  2230           5.999           0.000           0.000           1.153           0.000           0.000           0.000
  2240           5.999           0.000           0.000           1.158           0.000           0.000           0.000
  2250           5.999           0.000           0.000           1.164           0.000           0.000           0.000
  2260           5.999           0.000           0.000           1.169           0.000           0.000           0.000
  2270           5.999           0.000           0.000           1.174           0.000           0.000           0.000
  2280           5.999           0.000           0.000           1.179           0.000           0.000           0.000
  2290           5.999           0.000           0.000           1.184           0.000           0.000           0.000
  2300           5.999           0.000           0.000           1.189           0.000           0.000           0.000
  2310           5.999           0.000           0.000           1.195           0.000           0.000           0.000
  2320           5.999           0.000           0.000           1.200           0.000           0.000           0.000
  2330           5.999           0.000           0.000           1.205           0.000           0.000           0.000
  2340           5.999           0.000           0.000           1.210           0.000           0.000           0.000
  2350           5.999           0.000           0.000           1.215           0.000           0.000           0.000
  2360           5.999           0.000           0.000           1.220           0.000           0.000           0.000
  2370           5.999           0.000           0.000           1.226           0.000           0.000           0.000
  2380           5.999           0.000           0.000           1.231           0.000           0.000           0.000
  2390           5.999           0.000           0.000           1.236           0.000           0.000           0.000
  2400           5.999           0.000           0.000           1.241           0.000           0.000           0.000
  2410           5.999           0.000           0.000           1.246           0.000           0.000           0.000
  2420           5.999           0.000           0.000           1.252           0.000           0.000           0.000
  2430           5.999           0.000           0.000           1.257           0.000           0.000           0.000
  2440           5.999           0.000           0.000           1.262           0.000           0.000           0.000
  2450           5.999           0.000           0.000           1.267           0.000           0.000           0.000
  2460           5.999           0.000           0.000           1.272           0.000           0.000           0.000
  2470           5.999           0.000           0.000           1.277           0.000           0.000           0.000
  2480           5.999           0.000           0.000           1.283           0.000           0.000           0.000
  2490           5.999           0.000           0.000           1.288           0.000           0.000           0.000
  2500           5.999           0.000           0.000           1.293           0.000           0.000           0.000
  2510           5.999           0.000           0.000           1.298           0.000           0.000           0.000
  2520           5.999           0.000           0.000           1.303           0.000           0.000           0.000
  2530           5.999           0.000           0.000           1.308           0.000           0.000           0.000
  2540           5.999           0.000           0.000           1.314           0.000           0.000           0.000
  2550           5.999           0.000           0.000           1.319           0.000           0.000           0.000
  2560           5.999           0.000           0.000           1.324           0.000           0.000           0.000
  2570           5.999           0.000           0.000           1.329           0.000           0.000           0.000
  2580           5.999           0.000           0.000           1.334           0.000           0.000           0.000
  2590           5.999           0.000           0.000           1.339           0.000           0.000           0.000
  2600           5.999           0.000           0.000           1.345           0.000           0.000           0.000
  2610           5.999           0.000           0.000           1.350           0.000           0.000           0.000
  2620           5.999           0.000           0.000           1.355           0.000           0.000           0.000
  2630           5.999           0.000           0.000           1.360           0.000           0.000           0.000
  2640           5.999           0.000           0.000           1.365           0.000           0.000           0.000
  2650           5.999           0.000           0.000           1.370           0.000           0.000           0.000
  2660           5.999           0.000           0.000           1.376           0.000           0.000           0.000
  2670           5.999           0.000           0.000           1.381           0.000           0.000           0.000
  2680           5.999           0.000           0.000           1.386           0.000           0.000           0.000
  2690           5.999           0.000           0.000           1.391           0.000           0.000           0.000
  2700           5.999           0.000           0.000           1.396           0.000           0.000           0.000
  2710           5.999           0.000           0.000           1.401           0.000           0.000           0.000
  2720           5.999           0.000           0.000           1.407           0.000           0.000           0.000
  2730           5.999           0.000           0.000           1.412           0.000           0.000           0.000
  2740           5.999           0.000           0.000           1.417           0.000           0.000           0.000
  2750           5.999           0.000           0.000           1.422           0.000           0.000           0.000
  2760           5.999           0.000           0.000           1.427           0.000           0.000           0.000
  2770           5.999           0.000           0.000           1.432           0.000           0.000           0.000
  2780           5.999           0.000           0.000           1.438           0.000           0.000           0.000
  2790           5.999           0.000           0.000           1.443           0.000           0.000           0.000
  2800           5.999           0.000           0.000           1.448           0.000           0.000           0.000
  2810           5.999           0.000           0.000           1.453           0.000           0.000           0.000
  2820           5.999           0.000           0.000           1.458           0.000           0.000           0.000
  2830           5.999           0.000           0.000           1.463           0.000           0.000           0.000
  2840           5.999           0.000           0.000           1.469           0.000           0.000           0.000
  2850           5.999           0.000           0.000           1.474           0.000           0.000           0.000
  2860           5.999           0.000           0.000           1.479           0.000           0.000           0.000
  2870           5.999           0.000           0.000           1.484           0.000           0.000           0.000
  2880           5.999           0.000           0.000           1.489           0.000           0.000           0.000
  2890           5.999           0.000           0.000           1.494           0.000           0.000           0.000
  2900           5.999           0.000           0.000           1.500           0.000           0.000           0.000
  2910           5.999           0.000           0.000           1.505           0.000           0.000           0.000
  2920           5.999           0.000           0.000           1.510           0.000           0.000           0.000
  2930           5.999           0.000           0.000           1.515           0.000           0.000           0.000
  2940           5.999           0.000           0.000           1.520           0.000           0.000           0.000
  2950           5.999           0.000           0.000           1.525           0.000           0.000           0.000
  2960           5.999           0.000           0.000           1.531           0.000           0.000           0.000
  2970           5.999           0.000           0.000           1.536           0.000           0.000           0.000
  2980           5.999           0.000           0.000           1.541           0.000           0.000           0.000
  2990           5.999           0.000           0.000           1.546           0.000           0.000           0.000
  3000           5.999           0.000           0.000           1.551           0.000           0.000           0.000
  3010           5.999           0.000           0.000           1.557           0.000           0.000           0.000
  3020           5.999           0.000           0.000           1.562           0.000           0.000           0.000
  3030           5.999           0.000           0.000           1.567           0.000           0.000           0.000
  3040           5.999           0.000           0.000           1.572           0.000           0.000           0.000
  3050           5.999           0.000           0.000           1.577           0.000           0.000           0.000
  3060           5.999           0.000           0.000           1.582           0.000           0.000           0.000
  3070           5.999           0.000           0.000           1.588           0.000           0.000           0.000
  3080           5.999           0.000           0.000           1.593           0.000           0.000           0.000
  3090           5.999           0.000           0.000           1.598           0.000           0.000           0.000
  3100           5.999           0.000           0.000           1.603           0.000           0.000           0.000
  3110           5.999           0.000           0.000           1.608           0.000           0.000           0.000
  3120           5.999           0.000           0.000           1.613           0.000           0.000           0.000
  3130           5.999           0.000           0.000           1.619           0.000           0.000           0.000
  3140           5.999           0.000           0.000           1.624           0.000           0.000           0.000
  3150           5.999           0.000           0.000           1.629           0.000           0.000           0.000
  3160           5.999           0.000           0.000           1.634           0.000           0.000           0.000
  3170           5.999           0.000           0.000           1.639           0.000           0.000           0.000
  3180           5.999           0.000           0.000           1.644           0.000           0.000           0.000
  3190           5.999           0.000           0.000           1.650           0.000           0.000           0.000
  3200           5.999           0.000           0.000           1.655           0.000           0.000           0.000
  3210           5.999           0.000           0.000           1.660           0.000           0.000           0.000
  3220           5.999           0.000           0.000           1.665           0.000           0.000           0.000
  3230           5.999           0.000           0.000           1.670           0.000           0.000           0.000
  3240           5.999           0.000           0.000           1.675           0.000           0.000           0.000
  3250           5.999           0.000           0.000           1.681           0.000           0.000           0.000
  3260           5.999           0.000           0.000           1.686           0.000           0.000           0.000
  3270           5.999           0.000           0.000           1.691           0.000           0.000           0.000
  3280           5.999           0.000           0.000           1.696           0.000           0.000           0.000
  3290           5.999           0.000           0.000           1.701           0.000           0.000           0.000
  3300           5.999           0.000           0.000           1.706           0.000           0.000           0.000
  3310           5.999           0.000           0.000           1.712           0.000           0.000           0.000
  3320           5.999           0.000           0.000           1.717           0.000           0.000           0.000
  3330           5.999           0.000           0.000           1.722           0.000           0.000           0.000
  3340           5.999           0.000           0.000           1.727           0.000           0.000           0.000
  3350           5.999           0.000           0.000           1.732           0.000           0.000           0.000
  3360           5.999           0.000           0.000           1.737           0.000           0.000           0.000
  3370           5.999           0.000           0.000           1.743           0.000           0.000           0.000
  3380           5.999           0.000           0.000           1.748           0.000           0.000           0.000
  3390           5.999           0.000           0.000           1.753           0.000           0.000           0.000
  3400           5.999           0.000           0.000           1.758           0.000           0.000           0.000
  3410           5.999           0.000           0.000           1.763           0.000           0.000           0.000
  3420           5.999           0.000           0.000           1.768           0.000           0.000           0.000
  3430           5.999           0.000           0.000           1.774           0.000           0.000           0.000
  3440           5.999           0.000           0.000           1.779           0.000           0.000           0.000
  3450           5.999           0.000           0.000           1.784           0.000           0.000           0.000
  3460           5.999           0.000           0.000           1.789           0.000           0.000           0.000
  3470           5.999           0.000           0.000           1.794           0.000           0.000           0.000
  3480           5.999           0.000           0.000           1.799           0.000           0.000           0.000
  3490           5.999           0.000           0.000           1.805           0.000           0.000           0.000
  3500           5.999           0.000           0.000           1.810           0.000           0.000           0.000
  3510           5.999           0.000           0.000           1.815           0.000           0.000           0.000
  3520           5.999           0.000           0.000           1.820           0.000           0.000           0.000
  3530           5.999           0.000           0.000           1.825           0.000           0.000           0.000
  3540           5.999           0.000           0.000           1.831           0.000           0.000           0.000
  3550           5.999           0.000           0.000           1.836           0.000           0.000           0.000
  3560           5.999           0.000           0.000           1.841           0.000           0.000           0.000
  3570           5.999           0.000           0.000           1.846           0.000           0.000           0.000
  3580           5.999           0.000           0.000           1.851           0.000           0.000           0.000
  3590           5.999           0.000           0.000           1.856           0.000           0.000           0.000
  3600           5.999           0.000           0.000           1.862           0.000           0.000           0.000
  3610           5.999           0.000           0.000           1.867           0.000           0.000           0.000
  3620           5.999           0.000           0.000           1.872           0.000           0.000           0.000
  3630           5.999           0.000           0.000           1.877           0.000           0.000           0.000
  3640           5.999           0.000           0.000           1.882           0.000           0.000           0.000
  3650           5.999           0.000           0.000           1.887           0.000           0.000           0.000
  3660           5.999           0.000           0.000           1.893           0.000           0.000           0.000
  3670           5.999           0.000           0.000           1.898           0.000           0.000           0.000
  3680           5.999           0.000           0.000           1.903           0.000           0.000           0.000
  3690           5.999           0.000           0.000           1.908           0.000           0.000           0.000
  3700           5.999           0.000           0.000           1.913           0.000           0.000           0.000
  3710           5.999           0.000           0.000           1.918           0.000           0.000           0.000
  3720           5.999           0.000           0.000           1.924           0.000           0.000           0.000
  3730           5.999           0.000           0.000           1.929           0.000           0.000           0.000
  3740           5.999           0.000           0.000           1.934           0.000           0.000           0.000
  3750           5.999           0.000           0.000           1.939           0.000           0.000           0.000
  3760           5.999           0.000           0.000           1.944           0.000           0.000           0.000
  3770           5.999           0.000           0.000           1.949           0.000           0.000           0.000
  3780           5.999           0.000           0.000           1.955           0.000           0.000           0.000
  3790           5.999           0.000           0.000           1.960           0.000           0.000           0.000
  3800           5.999           0.000           0.000           1.965           0.000           0.000           0.000
  3810           5.999           0.000           0.000           1.970           0.000           0.000           0.000
  3820           5.999           0.000           0.000           1.975           0.000           0.000           0.000
  3830           5.999           0.000           0.000           1.980           0.000           0.000           0.000
  3840           5.999           0.000           0.000           1.986           0.000           0.000           0.000
  3850           6.000           0.000           0.000           1.991           0.000           0.000           0.000
  3860           6.000           0.000           0.000           1.996           0.000           0.000           0.000
  3870           6.000           0.000           0.000           2.001           0.000           0.000           0.000
  3880           6.000           0.000           0.000           2.006           0.000           0.000           0.000
  3890           6.000           0.000           0.000           2.011           0.000           0.000           0.000
  3900           6.000           0.000           0.000           2.017           0.000           0.000           0.000
  3910           6.000           0.000           0.000           2.022           0.000           0.000           0.000
  3920           6.000           0.000           0.000           2.027           0.000           0.000           0.000
  3930           6.000           0.000           0.000           2.032           0.000           0.000           0.000
  3940           6.000           0.000           0.000           2.037           0.000           0.000           0.000
  3950           6.000           0.000           0.000           2.042           0.000           0.000           0.000
  3960           6.000           0.000           0.000           2.048           0.000           0.000           0.000
  3970           6.000           0.000           0.000           2.053           0.000           0.000           0.000
  3980           6.000           0.000           0.000           2.058           0.000           0.000           0.000
  3990           6.000           0.000           0.000           2.063           0.000           0.000           0.000
  4000           6.000           0.000           0.000           2.068           0.000           0.000           0.000
  4010           6.000           0.000           0.000           2.073           0.000           0.000           0.000
  4020           6.000           0.000           0.000           2.079           0.000           0.000           0.000
  4030           6.000           0.000           0.000           2.084           0.000           0.000           0.000
  4040           6.000           0.000           0.000           2.089           0.000           0.000           0.000
  4050           6.000           0.000           0.000           2.094           0.000           0.000           0.000
  4060           6.000           0.000           0.000           2.099           0.000           0.000           0.000
  4070           6.000           0.000           0.000           2.105           0.000           0.000           0.000
  4080           6.000           0.000           0.000           2.110           0.000           0.000           0.000
  4090           6.000           0.000           0.000           2.115           0.000           0.000           0.000
  4100           6.000           0.000           0.000           2.120           0.000           0.000           0.000
  4110           6.000           0.000           0.000           2.125           0.000           0.000           0.000
  4120           6.000           0.000           0.000           2.130           0.000           0.000           0.000
  4130           6.000           0.000           0.000           2.136           0.000           0.000           0.000
  4140           6.000           0.000           0.000           2.141           0.000           0.000           0.000
  4150           6.000           0.000           0.000           2.146           0.000           0.000           0.000
  4160           6.000           0.000           0.000           2.151           0.000           0.000           0.000
  4170           6.000           0.000           0.000           2.156           0.000           0.000           0.000
  4180           6.000           0.000           0.000           2.161           0.000           0.000           0.000
  4190           6.000           0.000           0.000           2.167           0.000           0.000           0.000
  4200           6.000           0.000           0.000           2.172           0.000           0.000           0.000
  4210           6.000           0.000           0.000           2.177           0.000           0.000           0.000
  4220           6.000           0.000           0.000           2.182           0.000           0.000           0.000
  4230           6.000           0.000           0.000           2.187           0.000           0.000           0.000
  4240           6.000           0.000           0.000           2.192           0.000           0.000           0.000
  4250           6.000           0.000           0.000           2.198           0.000           0.000           0.000
  4260           6.000           0.000           0.000           2.203           0.000           0.000           0.000
  4270           6.000           0.000           0.000           2.208           0.000           0.000           0.000
  4280           6.000           0.000           0.000           2.213           0.000           0.000           0.000
  4290           6.000           0.000           0.000           2.218           0.000           0.000           0.000
  4300           6.000           0.000           0.000           2.223           0.000           0.000           0.000
  4310           6.000           0.000           0.000           2.229           0.000           0.000           0.000
  4320           6.000           0.000           0.000           2.234           0.000           0.000           0.000
  4330           6.000           0.000           0.000           2.239           0.000           0.000           0.000
  4340           6.000           0.000           0.000           2.244           0.000           0.000           0.000
  4350           6.000           0.000           0.000           2.249           0.000           0.000           0.000
  4360           6.000           0.000           0.000           2.254           0.000           0.000           0.000
  4370           6.000           0.000           0.000           2.260           0.000           0.000           0.000
  4380           6.000           0.000           0.000           2.265           0.000           0.000           0.000
  4390           6.000           0.000           0.000           2.270           0.000           0.000           0.000
  4400           6.000           0.000           0.000           2.275           0.000           0.000           0.000
  4410           6.000           0.000           0.000           2.280           0.000           0.000           0.000
  4420           6.000           0.000           0.000           2.285           0.000           0.000           0.000
  4430           6.000           0.000           0.000           2.291           0.000           0.000           0.000
  4440           6.000           0.000           0.000           2.296           0.000           0.000           0.000
  4450           6.000           0.000           0.000           2.301           0.000           0.000           0.000
  4460           6.000           0.000           0.000           2.306           0.000           0.000           0.000
  4470           6.000           0.000           0.000           2.311           0.000           0.000           0.000
  4480           6.000           0.000           0.000           2.316           0.000           0.000           0.000
  4490           6.000           0.000           0.000           2.322           0.000           0.000           0.000
  4500           6.000           0.000           0.000           2.327           0.000           0.000           0.000
  4510           6.000           0.000           0.000           2.332           0.000           0.000           0.000
  4520           6.000           0.000           0.000           2.337           0.000           0.000           0.000
  4530           6.000           0.000           0.000           2.342           0.000           0.000           0.000
  4540           6.000           0.000           0.000           2.348           0.000           0.000           0.000
  4550           6.000           0.000           0.000           2.353           0.000           0.000           0.000
  4560           6.000           0.000           0.000           2.358           0.000           0.000           0.000
  4570           6.000           0.000           0.000           2.363           0.000           0.000           0.000
  4580           6.000           0.000           0.000           2.368           0.000           0.000           0.000
  4590           6.000           0.000           0.000           2.373           0.000           0.000           0.000
  4600           6.000           0.000           0.000           2.379           0.000           0.000           0.000
  4610           6.000           0.000           0.000           2.384           0.000           0.000           0.000
  4620           6.000           0.000           0.000           2.389           0.000           0.000           0.000
  4630           6.000           0.000           0.000           2.394           0.000           0.000           0.000
  4640           6.000           0.000           0.000           2.399           0.000           0.000           0.000
  4650           6.000           0.000           0.000           2.404           0.000           0.000           0.000
  4660           6.000           0.000           0.000           2.410           0.000           0.000           0.000
  4670           6.000           0.000           0.000           2.415           0.000           0.000           0.000
  4680           6.000           0.000           0.000           2.420           0.000           0.000           0.000
  4690           6.000           0.000           0.000           2.425           0.000           0.000           0.000
  4700           6.000           0.000           0.000           2.430           0.000           0.000           0.000
  4710           6.000           0.000           0.000           2.435           0.000           0.000           0.000
  4720           6.000           0.000           0.000           2.441           0.000           0.000           0.000
  4730           6.000           0.000           0.000           2.446           0.000           0.000           0.000
  4740           6.000           0.000           0.000           2.451           0.000           0.000           0.000
  4750           6.000           0.000           0.000           2.456           0.000           0.000           0.000
  4760           6.000           0.000           0.000           2.461           0.000           0.000           0.000
  4770           6.000           0.000           0.000           2.466           0.000           0.000           0.000
  4780           6.000           0.000           0.000           2.472           0.000           0.000           0.000
  4790           6.000           0.000           0.000           2.477           0.000           0.000           0.000
  4800           6.000           0.000           0.000           2.482           0.000           0.000           0.000
  4810           6.000           0.000           0.000           2.487           0.000           0.000           0.000
  4820           6.000           0.000           0.000           2.492           0.000           0.000           0.000
  4830           6.000           0.000           0.000           2.497           0.000           0.000           0.000
  4840           6.000           0.000           0.000           2.503           0.000           0.000           0.000
  4850           6.000           0.000           0.000           2.508           0.000           0.000           0.000
  4860           6.000           0.000           0.000           2.513           0.000           0.000           0.000
  4870           6.000           0.000           0.000           2.518           0.000           0.000           0.000
  4880           6.000           0.000           0.000           2.523           0.000           0.000           0.000
  4890           6.000           0.000           0.000           2.528           0.000           0.000           0.000
  4900           6.000           0.000           0.000           2.534           0.000           0.000           0.000
  4910           6.000           0.000           0.000           2.539           0.000           0.000           0.000
  4920           6.000           0.000           0.000           2.544           0.000           0.000           0.000
  4930           6.000           0.000           0.000           2.549           0.000           0.000           0.000
  4940           6.000           0.000           0.000           2.554           0.000           0.000           0.000
  4950           6.000           0.000           0.000           2.559           0.000           0.000           0.000
  4960           6.000           0.000           0.000           2.565           0.000           0.000           0.000
  4970           6.000           0.000           0.000           2.570           0.000           0.000           0.000
  4980           6.000           0.000           0.000           2.575           0.000           0.000           0.000
  4990           6.000           0.000           0.000           2.580           0.000           0.000           0.000
  5000           6.000           0.000           0.000           2.585           0.000           0.000           0.000
  5010           6.000           0.000           0.000           2.591           0.000           0.000           0.000
  5020           6.000           0.000           0.000           2.596           0.000           0.000           0.000
  5030           6.000           0.000           0.000           2.601           0.000           0.000           0.000
  5040           6.000           0.000           0.000           2.606           0.000           0.000           0.000
  5050           6.000           0.000           0.000           2.611           0.000           0.000           0.000
  5060           6.000           0.000           0.000           2.616           0.000           0.000           0.000
  5070           6.000           0.000           0.000           2.622           0.000           0.000           0.000
  5080           6.000           0.000           0.000           2.627           0.000           0.000           0.000
  5090           6.000           0.000           0.000           2.632           0.000           0.000           0.000
  5100           6.000           0.000           0.000           2.637           0.000           0.000           0.000
  5110           6.000           0.000           0.000           2.642           0.000           0.000           0.000
  5120           6.000           0.000           0.000           2.647           0.000           0.000           0.000
  5130           6.000           0.000           0.000           2.653           0.000           0.000           0.000
  5140           6.000           0.000           0.000           2.658           0.000           0.000           0.000
  5150           6.000           0.000           0.000           2.663           0.000           0.000           0.000
  5160           6.000           0.000           0.000           2.668           0.000           0.000           0.000
  5170           6.000           0.000           0.000           2.673           0.000           0.000           0.000
  5180           6.000           0.000           0.000           2.678           0.000           0.000           0.000
  5190           6.000           0.000           0.000           2.684           0.000           0.000           0.000
  5200           6.000           0.000           0.000           2.689           0.000           0.000           0.000
  5210           6.000           0.000           0.000           2.694           0.000           0.000           0.000
  5220           6.000           0.000           0.000           2.699           0.000           0.000           0.000
  5230           6.000           0.000           0.000           2.704           0.000           0.000           0.000
  5240           6.000           0.000           0.000           2.709           0.000           0.000           0.000
  5250           6.000           0.000           0.000           2.715           0.000           0.000           0.000
  5260           6.000           0.000           0.000           2.720           0.000           0.000           0.000
  5270           6.000           0.000           0.000           2.725           0.000           0.000           0.000
  5280           6.000           0.000           0.000           2.730           0.000           0.000           0.000
  5290           6.000           0.000           0.000           2.735           0.000           0.000           0.000
  5300           6.000           0.000           0.000           2.740           0.000           0.000           0.000
  5310           6.000           0.000           0.000           2.746           0.000           0.000           0.000
  5320           6.000           0.000           0.000           2.751           0.000           0.000           0.000
  5330           6.000           0.000           0.000           2.756           0.000           0.000           0.000
  5340           6.000           0.000           0.000           2.761           0.000           0.000           0.000
  5350           6.000           0.000           0.000           2.766           0.000           0.000           0.000
  5360           6.000           0.000           0.000           2.771           0.000           0.000           0.000
  5370           6.000           0.000           0.000           2.777           0.000           0.000           0.000
  5380           6.000           0.000           0.000           2.782           0.000           0.000           0.000
  5390           6.000           0.000           0.000           2.787           0.000           0.000           0.000
  5400           6.000           0.000           0.000           2.792           0.000           0.000           0.000
  5410           6.000           0.000           0.000           2.797           0.000           0.000           0.000
  5420           6.000           0.000           0.000           2.802           0.000           0.000           0.000
  5430           6.000           0.000           0.000           2.808           0.000           0.000           0.000
  5440           6.000           0.000           0.000           2.813           0.000           0.000           0.000
  5450           6.000           0.000           0.000           2.818           0.000           0.000           0.000
  5460           6.000           0.000           0.000           2.823           0.000           0.000           0.000
  5470           6.000           0.000           0.000           2.828           0.000           0.000           0.000
  5480           6.000           0.000           0.000           2.833           0.000           0.000           0.000
  5490           6.000           0.000           0.000           2.839           0.000           0.000           0.000
  5500           6.000           0.000           0.000           2.844           0.000           0.000           0.000
  5510           6.000           0.000           0.000           2.849           0.000           0.000           0.000
  5520           6.000           0.000           0.000           2.854           0.000           0.000           0.000
  5530           6.000           0.000           0.000           2.859           0.000           0.000           0.000
  5540           6.000           0.000           0.000           2.865           0.000           0.000           0.000
  5550           6.000           0.000           0.000           2.870           0.000           0.000           0.000
  5560           6.000           0.000           0.000           2.875           0.000           0.000           0.000
  5570           6.000           0.000           0.000           2.880           0.000           0.000           0.000
  5580           6.000           0.000           0.000           2.885           0.000           0.000           0.000
  5590           6.000           0.000           0.000           2.890           0.000           0.000           0.000
  5600           6.000           0.000           0.000           2.896           0.000           0.000           0.000
  5610           6.000           0.000           0.000           2.901           0.000           0.000           0.000
  5620           6.000           0.000           0.000           2.906           0.000           0.000           0.000
  5630           6.000           0.000           0.000           2.911           0.000           0.000           0.000
  5640           6.000           0.000           0.000           2.916           0.000           0.000           0.000
  5650           6.000           0.000           0.000           2.921           0.000           0.000           0.000
  5660           6.000           0.000           0.000           2.927           0.000           0.000           0.000
  5670           6.000           0.000           0.000           2.932           0.000           0.000           0.000
  5680           6.000           0.000           0.000           2.937           0.000           0.000           0.000
  5690           6.000           0.000           0.000           2.942           0.000           0.000           0.000
  5700           6.000           0.000           0.000           2.947           0.000           0.000           0.000
  5710           6.000           0.000           0.000           2.952           0.000           0.000           0.000
  5720           6.000           0.000           0.000           2.958           0.000           0.000           0.000
  5730           6.000           0.000           0.000           2.963           0.000           0.000           0.000
  5740           6.000           0.000           0.000           2.968           0.000           0.000           0.000
  5750           6.000           0.000           0.000           2.973           0.000           0.000           0.000
  5760           6.000           0.000           0.000           2.978           0.000           0.000           0.000
  5770           6.000           0.000           0.000           2.983           0.000           0.000           0.000
  5780           6.000           0.000           0.000           2.989           0.000           0.000           0.000
  5790           6.000           0.000           0.000           2.994           0.000           0.000           0.000
  5800           6.000           0.000           0.000           2.999           0.000           0.000           0.000
  5810           6.000           0.000           0.000           3.004           0.000           0.000           0.000
  5820           6.000           0.000           0.000           3.009           0.000           0.000           0.000
  5830           6.000           0.000           0.000           3.014           0.000           0.000           0.000
  5840           6.000           0.000           0.000           3.020           0.000           0.000           0.000
  5850           6.000           0.000           0.000           3.025           0.000           0.000           0.000
  5860           6.000           0.000           0.000           3.030           0.000           0.000           0.000
  5870           6.000           0.000           0.000           3.035           0.000           0.000           0.000
  5880           6.000           0.000           0.000           3.040           0.000           0.000           0.000
  5890           6.000           0.000           0.000           3.045           0.000           0.000           0.000
  5900           6.000           0.000           0.000           3.051           0.000           0.000           0.000
  5910           6.000           0.000           0.000           3.056           0.000           0.000           0.000
  5920           6.000           0.000           0.000           3.061           0.000           0.000           0.000
  5930           6.000           0.000           0.000           3.066           0.000           0.000           0.000
  5940           6.000           0.000           0.000           3.071           0.000           0.000           0.000
  5950           6.000           0.000           0.000           3.076           0.000           0.000           0.000
  5960           6.000           0.000           0.000           3.082           0.000           0.000           0.000
  5970           6.000           0.000           0.000           3.087           0.000           0.000           0.000
  5980           6.000           0.000           0.000           3.092           0.000           0.000           0.000
  5990           6.000           0.000           0.000           3.097           0.000           0.000           0.000
  6000           6.000           0.000           0.000           3.102           0.000           0.000           0.000
  6010           6.000           0.000           0.000           3.108           0.000           0.000           0.000
  6020           6.000           0.000           0.000           3.113           0.000           0.000           0.000
  6030           6.000           0.000           0.000           3.118           0.000           0.000           0.000
  6040           6.000           0.000           0.000           3.123           0.000           0.000           0.000
  6050           6.000           0.000           0.000           3.128           0.000           0.000           0.000
  6060           6.000           0.000           0.000           3.133           0.000           0.000           0.000
  6070           6.000           0.000           0.000           3.139           0.000           0.000           0.000
  6080           6.000           0.000           0.000           3.144           0.000           0.000           0.000
  6090           6.000           0.000           0.000           3.149           0.000           0.000           0.000
  6100           6.000           0.000           0.000           3.154           0.000           0.000           0.000
  6110           6.000           0.000           0.000           3.159           0.000           0.000           0.000
  6120           6.000           0.000           0.000           3.164           0.000           0.000           0.000
  6130           6.000           0.000           0.000           3.170           0.000           0.000           0.000
  6140           6.000           0.000           0.000           3.175           0.000           0.000           0.000
  6150           6.000           0.000           0.000           3.180           0.000           0.000           0.000
  6160           6.000           0.000           0.000           3.185           0.000           0.000           0.000
  6170           6.000           0.000           0.000           3.190           0.000           0.000           0.000
  6180           6.000           0.000           0.000           3.195           0.000           0.000           0.000
  6190           6.000           0.000           0.000           3.201           0.000           0.000           0.000
  6200           6.000           0.000           0.000           3.206           0.000           0.000           0.000
  6210           6.000           0.000           0.000           3.211           0.000           0.000           0.000
  6220           6.000           0.000           0.000           3.216           0.000           0.000           0.000
  6230           6.000           0.000           0.000           3.221           0.000           0.000           0.000
  6240           6.000           0.000           0.000           3.226           0.000           0.000           0.000
  6250           6.000           0.000           0.000           3.232           0.000           0.000           0.000
  6260           6.000           0.000           0.000           3.237           0.000           0.000           0.000
  6270           6.000           0.000           0.000           3.242           0.000           0.000           0.000
  6280           6.000           0.000           0.000           3.247           0.000           0.000           0.000
  6290           6.000           0.000           0.000           3.252           0.000           0.000           0.000
  6300           6.000           0.000           0.000           3.257           0.000           0.000           0.000
  6310           6.000           0.000           0.000           3.263           0.000           0.000           0.000
  6320           6.000           0.000           0.000           3.268           0.000           0.000           0.000
  6330           6.000           0.000           0.000           3.273           0.000           0.000           0.000
  6340           6.000           0.000           0.000           3.278           0.000           0.000           0.000
  6350           6.000           0.000           0.000           3.283           0.000           0.000           0.000
  6360           6.000           0.000           0.000           3.288           0.000           0.000           0.000
  6370           6.000           0.000           0.000           3.294           0.000           0.000           0.000
  6380           6.000           0.000           0.000           3.299           0.000           0.000           0.000
  6390           6.000           0.000           0.000           3.304           0.000           0.000           0.000
  6400           6.000           0.000           0.000           3.309           0.000           0.000           0.000
  6410           6.000           0.000           0.000           3.314           0.000           0.000           0.000
  6420           6.000           0.000           0.000           3.319           0.000           0.000           0.000
  6430           6.000           0.000           0.000           3.325           0.000           0.000           0.000
  6440           6.000           0.000           0.000           3.330           0.000           0.000           0.000
  6450           6.000           0.000           0.000           3.335           0.000           0.000           0.000
  6460           6.000           0.000           0.000           3.340           0.000           0.000           0.000
  6470           6.000           0.000           0.000           3.345           0.000           0.000           0.000
  6480           6.000           0.000           0.000           3.351           0.000           0.000           0.000
  6490           6.000           0.000           0.000           3.356           0.000           0.000           0.000
  6500           6.000           0.000           0.000           3.361           0.000           0.000           0.000
  6510           6.000           0.000           0.000           3.366           0.000           0.000           0.000
  6520           6.000           0.000           0.000           3.371           0.000           0.000           0.000
  6530           6.000           0.000           0.000           3.376           0.000           0.000           0.000
  6540           6.000           0.000           0.000           3.382           0.000           0.000           0.000
  6550           6.000           0.000           0.000           3.387           0.000           0.000           0.000
  6560           6.000           0.000           0.000           3.392           0.000           0.000           0.000
  6570           6.000           0.000           0.000           3.397           0.000           0.000           0.000
  6580           6.000           0.000           0.000           3.402           0.000           0.000           0.000
  6590           6.000           0.000           0.000           3.407           0.000           0.000           0.000
  6600           6.000           0.000           0.000           3.413           0.000           0.000           0.000
  6610           6.000           0.000           0.000           3.418           0.000           0.000           0.000
  6620           6.000           0.000           0.000           3.423           0.000           0.000           0.000
  6630           6.000           0.000           0.000           3.428           0.000           0.000           0.000
  6640           6.000           0.000           0.000           3.433           0.000           0.000           0.000
  6650           6.000           0.000           0.000           3.438           0.000           0.000           0.000
  6660           6.000           0.000           0.000           3.444           0.000           0.000           0.000
  6670           6.000           0.000           0.000           3.449           0.000           0.000           0.000
  6680           6.000           0.000           0.000           3.454           0.000           0.000           0.000
  6690           6.000           0.000           0.000           3.459           0.000           0.000           0.000
  6700           6.000           0.000           0.000           3.464           0.000           0.000           0.000
  6710           6.000           0.000           0.000           3.469           0.000           0.000           0.000
  6720           6.000           0.000           0.000           3.475           0.000           0.000           0.000
  6730           6.000           0.000           0.000           3.480           0.000           0.000           0.000
  6740           6.000           0.000           0.000           3.485           0.000           0.000           0.000
  6750           6.000           0.000           0.000           3.490           0.000           0.000           0.000
  6760           6.000           0.000           0.000           3.495           0.000           0.000           0.000
  6770           6.000           0.000           0.000           3.500           0.000           0.000           0.000
  6780           6.000           0.000           0.000           3.506           0.000           0.000           0.000
  6790           6.000           0.000           0.000           3.511           0.000           0.000           0.000
  6800           6.000           0.000           0.000           3.516           0.000           0.000           0.000
  6810           6.000           0.000           0.000           3.521           0.000           0.000           0.000
  6820           6.000           0.000           0.000           3.526           0.000           0.000           0.000
  6830           6.000           0.000           0.000           3.531           0.000           0.000           0.000
  6840           6.000           0.000           0.000           3.537           0.000           0.000           0.000
  6850           6.000           0.000           0.000           3.542           0.000           0.000           0.000
  6860           6.000           0.000           0.000           3.547           0.000           0.000           0.000
  6870           6.000           0.000           0.000           3.552           0.000           0.000           0.000
  6880           6.000           0.000           0.000           3.557           0.000           0.000           0.000
  6890           6.000           0.000           0.000           3.563           0.000           0.000           0.000
  6900           6.000           0.000           0.000           3.568           0.000           0.000           0.000
  6910           6.000           0.000           0.000           3.573           0.000           0.000           0.000
  6920           6.000           0.000           0.000           3.578           0.000           0.000           0.000
  6930           6.000           0.000           0.000           3.583           0.000           0.000           0.000
  6940           6.000           0.000           0.000           3.588           0.000           0.000           0.000
  6950           6.000           0.000           0.000           3.594           0.000           0.000           0.000
  6960           6.000           0.000           0.000           3.599           0.000           0.000           0.000
  6970           6.000           0.000           0.000           3.604           0.000           0.000           0.000
  6980           6.000           0.000           0.000           3.609           0.000           0.000           0.000
  6990           6.000           0.000           0.000           3.614           0.000           0.000           0.000
  7000           6.000           0.000           0.000           3.619           0.000           0.000           0.000
  7010           6.000           0.000           0.000           3.625           0.000           0.000           0.000
  7020           6.000           0.000           0.000           3.630           0.000           0.000           0.000
  7030           6.000           0.000           0.000           3.635           0.000           0.000           0.000
  7040           6.000           0.000           0.000           3.640           0.000           0.000           0.000
  7050           6.000           0.000           0.000           3.645           0.000           0.000           0.000
  7060           6.000           0.000           0.000           3.650           0.000           0.000           0.000
  7070           6.000           0.000           0.000           3.656           0.000           0.000           0.000
  7080           6.000           0.000           0.000           3.661           0.000           0.000           0.000
  7090           6.000           0.000           0.000           3.666           0.000           0.000           0.000
  7100           6.000           0.000           0.000           3.671           0.000           0.000           0.000
  7110           6.000           0.000           0.000           3.676           0.000           0.000           0.000
  7120           6.000           0.000           0.000           3.681           0.000           0.000           0.000
  7130           6.000           0.000           0.000           3.687           0.000           0.000           0.000
  7140           6.000           0.000           0.000           3.692           0.000           0.000           0.000
  7150           6.000           0.000           0.000           3.697           0.000           0.000           0.000
  7160           6.000           0.000           0.000           3.702           0.000           0.000           0.000
  7170           6.000           0.000           0.000           3.707           0.000           0.000           0.000
  7180           6.000           0.000           0.000           3.712           0.000           0.000           0.000
  7190           6.000           0.000           0.000           3.718           0.000           0.000           0.000
  7200           6.000           0.000           0.000           3.723           0.000           0.000           0.000
  7210           6.000           0.000           0.000           3.728           0.000           0.000           0.000
  7220           6.000           0.000           0.000           3.733           0.000           0.000           0.000
  7230           6.000           0.000           0.000           3.738           0.000           0.000           0.000
  7240           6.000           0.000           0.000           3.743           0.000           0.000           0.000
  7250           6.000           0.000           0.000           3.749           0.000           0.000           0.000
  7260           6.000           0.000           0.000           3.754           0.000           0.000           0.000
  7270           6.000           0.000           0.000           3.759           0.000           0.000           0.000
  7280           6.000           0.000           0.000           3.764           0.000           0.000           0.000
  7290           6.000           0.000           0.000           3.769           0.000           0.000           0.000
  7300           6.000           0.000           0.000           3.774           0.000           0.000           0.000
  7310           6.000           0.000           0.000           3.780           0.000           0.000           0.000
  7320           6.000           0.000           0.000           3.785           0.000           0.000           0.000
  7330           6.000           0.000           0.000           3.790           0.000           0.000           0.000
  7340           6.000           0.000           0.000           3.795           0.000           0.000           0.000
  7350           6.000           0.000           0.000           3.800           0.000           0.000           0.000
  7360           6.000           0.000           0.000           3.806           0.000           0.000           0.000
  7370           6.000           0.000           0.000           3.811           0.000           0.000           0.000
  7380           6.000           0.000           0.000           3.816           0.000           0.000           0.000
  7390           6.000           0.000           0.000           3.821           0.000           0.000           0.000
  7400           6.000           0.000           0.000           3.826           0.000           0.000           0.000
  7410           6.000           0.000           0.000           3.831           0.000           0.000           0.000
  7420           6.000           0.000           0.000           3.837           0.000           0.000           0.000
  7430           6.000           0.000           0.000           3.842           0.000           0.000           0.000
  7440           6.000           0.000           0.000           3.847           0.000           0.000           0.000
  7450           6.000           0.000           0.000           3.852           0.000           0.000           0.000
  7460           6.000           0.000           0.000           3.857           0.000           0.000           0.000
  7470           6.000           0.000           0.000           3.862           0.000           0.000           0.000
  7480           6.000           0.000           0.000           3.868           0.000           0.000           0.000
  7490           6.000           0.000           0.000           3.873           0.000           0.000           0.000
  7500           6.000           0.000           0.000           3.878           0.000           0.000           0.000
  7510           6.000           0.000           0.000           3.883           0.000           0.000           0.000
  7520           6.000           0.000           0.000           3.888           0.000           0.000           0.000
  7530           6.000           0.000           0.000           3.893           0.000           0.000           0.000
  7540           6.000           0.000           0.000           3.899           0.000           0.000           0.000
  7550           6.000           0.000           0.000           3.904           0.000           0.000           0.000
  7560           6.000           0.000           0.000           3.909           0.000           0.000           0.000
  7570           6.000           0.000           0.000           3.914           0.000           0.000           0.000
  7580           6.000           0.000           0.000           3.919           0.000           0.000           0.000
  7590           6.000           0.000           0.000           3.924           0.000           0.000           0.000
  7600           6.000           0.000           0.000           3.930           0.000           0.000           0.000
  7610           6.000           0.000           0.000           3.935           0.000           0.000           0.000
  7620           6.000           0.000           0.000           3.940           0.000           0.000           0.000
  7630           6.000           0.000           0.000           3.945           0.000           0.000           0.000
  7640           6.000           0.000           0.000           3.950           0.000           0.000           0.000
  7650           6.000           0.000           0.000           3.955           0.000           0.000           0.000
  7660           6.000           0.000           0.000           3.961           0.000           0.000           0.000
  7670           6.000           0.000           0.000           3.966           0.000           0.000           0.000
  7680           6.000           0.000           0.000           3.971           0.000           0.000           0.000
  7690           6.000           0.000           0.000           3.976           0.000           0.000           0.000
  7700           6.000           0.000           0.000           3.981           0.000           0.000           0.000
  7710           6.000           0.000           0.000           3.986           0.000           0.000           0.000
  7720           6.000           0.000           0.000           3.992           0.000           0.000           0.000
  7730           6.000           0.000           0.000           3.997           0.000           0.000           0.000
  7740           6.000           0.000           0.000           4.002           0.000           0.000           0.000
  7750           6.000           0.000           0.000           4.007           0.000           0.000           0.000
  7760           6.000           0.000           0.000           4.012           0.000           0.000           0.000
  7770           6.000           0.000           0.000           4.017           0.000           0.000           0.000
  7780           6.000           0.000           0.000           4.023           0.000           0.000           0.000
  7790           6.000           0.000           0.000           4.028           0.000           0.000           0.000
  7800           6.000           0.000           0.000           4.033           0.000           0.000           0.000
  7810           6.000           0.000           0.000           4.038           0.000           0.000           0.000
  7820           6.000           0.000           0.000           4.043           0.000           0.000           0.000
  7830           6.000           0.000           0.000           4.049           0.000           0.000           0.000
  7840           6.000           0.000           0.000           4.054           0.000           0.000           0.000
  7850           6.000           0.000           0.000           4.059           0.000           0.000           0.000
  7860           6.000           0.000           0.000           4.064           0.000           0.000           0.000
  7870           6.000           0.000           0.000           4.069           0.000           0.000           0.000
  7880           6.000           0.000           0.000           4.074           0.000           0.000           0.000
  7890           6.000           0.000           0.000           4.080           0.000           0.000           0.000
  7900           6.000           0.000           0.000           4.085           0.000           0.000           0.000
  7910           6.000           0.000           0.000           4.090           0.000           0.000           0.000
  7920           6.000           0.000           0.000           4.095           0.000           0.000           0.000
  7930           6.000           0.000           0.000           4.100           0.000           0.000           0.000
  7940           6.000           0.000           0.000           4.105           0.000           0.000           0.000
  7950           6.000           0.000           0.000           4.111           0.000           0.000           0.000
  7960           6.000           0.000           0.000           4.116           0.000           0.000           0.000
  7970           6.000           0.000           0.000           4.121           0.000           0.000           0.000
  7980           6.000           0.000           0.000           4.126           0.000           0.000           0.000
  7990           6.000           0.000           0.000           4.131           0.000           0.000           0.000
  8000           6.000           0.000           0.000           4.136           0.000           0.000           0.000
  8010           6.000           0.000           0.000           4.142           0.000           0.000           0.000
  8020           6.000           0.000           0.000           4.147           0.000           0.000           0.000
  8030           6.000           0.000           0.000           4.152           0.000           0.000           0.000
  8040           6.000           0.000           0.000           4.157           0.000           0.000           0.000
  8050           6.000           0.000           0.000           4.162           0.000           0.000           0.000
  8060           6.000           0.000           0.000           4.167           0.000           0.000           0.000
  8070           6.000           0.000           0.000           4.173           0.000           0.000           0.000
  8080           6.000           0.000           0.000           4.178           0.000           0.000           0.000
  8090           6.000           0.000           0.000           4.183           0.000           0.000           0.000
  8100           6.000           0.000           0.000           4.188           0.000           0.000           0.000
  8110           6.000           0.000           0.000           4.193           0.000           0.000           0.000
  8120           6.000           0.000           0.000           4.198           0.000           0.000           0.000
  8130           6.000           0.000           0.000           4.204           0.000           0.000           0.000
  8140           6.000           0.000           0.000           4.209           0.000           0.000           0.000
  8150           6.000           0.000           0.000           4.214           0.000           0.000           0.000
  8160           6.000           0.000           0.000           4.219           0.000           0.000           0.000
  8170           6.000           0.000           0.000           4.224           0.000           0.000           0.000
  8180           6.000           0.000           0.000           4.229           0.000           0.000           0.000
  8190           6.000           0.000           0.000           4.235           0.000           0.000           0.000
  8200           6.000           0.000           0.000           4.240           0.000           0.000           0.000
  8210           6.000           0.000           0.000           4.245           0.000           0.000           0.000
  8220           6.000           0.000           0.000           4.250           0.000           0.000           0.000
  8230           6.000           0.000           0.000           4.255           0.000           0.000           0.000
  8240           6.000           0.000           0.000           4.260           0.000           0.000           0.000
  8250           6.000           0.000           0.000           4.266           0.000           0.000           0.000
  8260           6.000           0.000           0.000           4.271           0.000           0.000           0.000
  8270           6.000           0.000           0.000           4.276           0.000           0.000           0.000
  8280           6.000           0.000           0.000           4.281           0.000           0.000           0.000
  8290           6.000           0.000           0.000           4.286           0.000           0.000           0.000
  8300           6.000           0.000           0.000           4.292           0.000           0.000           0.000
  8310           6.000           0.000           0.000           4.297           0.000           0.000           0.000
  8320           6.000           0.000           0.000           4.302           0.000           0.000           0.000
  8330           6.000           0.000           0.000           4.307           0.000           0.000           0.000
  8340           6.000           0.000           0.000           4.312           0.000           0.000           0.000
  8350           6.000           0.000           0.000           4.317           0.000           0.000           0.000
  8360           6.000           0.000           0.000           4.323           0.000           0.000           0.000
  8370           6.000           0.000           0.000           4.328           0.000           0.000           0.000
  8380           6.000           0.000           0.000           4.333           0.000           0.000           0.000
  8390           6.000           0.000           0.000           4.338           0.000           0.000           0.000
  8400           6.000           0.000           0.000           4.343           0.000           0.000           0.000
  8410           6.000           0.000           0.000           4.348           0.000           0.000           0.000
  8420           6.000           0.000           0.000           4.354           0.000           0.000           0.000
  8430           6.000           0.000           0.000           4.359           0.000           0.000           0.000
  8440           6.000           0.000           0.000           4.364           0.000           0.000           0.000
  8450           6.000           0.000           0.000           4.369           0.000           0.000           0.000
  8460           6.000           0.000           0.000           4.374           0.000           0.000           0.000
  8470           6.000           0.000           0.000           4.379           0.000           0.000           0.000
  8480           6.000           0.000           0.000           4.385           0.000           0.000           0.000
  8490           6.000           0.000           0.000           4.390           0.000           0.000           0.000
  8500           6.000           0.000           0.000           4.395           0.000           0.000           0.000
  8510           6.000           0.000           0.000           4.400           0.000           0.000           0.000
  8520           6.000           0.000           0.000           4.405           0.000           0.000           0.000
  8530           6.000           0.000           0.000           4.410           0.000           0.000           0.000
  8540           6.000           0.000           0.000           4.416           0.000           0.000           0.000
  8550           6.000           0.000           0.000           4.421           0.000           0.000           0.000
  8560           6.000           0.000           0.000           4.426           0.000           0.000           0.000
  8570           6.000           0.000           0.000           4.431           0.000           0.000           0.000
  8580           6.000           0.000           0.000           4.436           0.000           0.000           0.000
  8590           6.000           0.000           0.000           4.441           0.000           0.000           0.000
  8600           6.000           0.000           0.000           4.447           0.000           0.000           0.000
  8610           6.000           0.000           0.000           4.452           0.000           0.000           0.000
  8620           6.000           0.000           0.000           4.457           0.000           0.000           0.000
  8630           6.000           0.000           0.000           4.462           0.000           0.000           0.000
  8640           6.000           0.000           0.000           4.467           0.000           0.000           0.000
  8650           6.000           0.000           0.000           4.472           0.000           0.000           0.000
  8660           6.000           0.000           0.000           4.478           0.000           0.000           0.000
  8670           6.000           0.000           0.000           4.483           0.000           0.000           0.000
  8680           6.000           0.000           0.000           4.488           0.000           0.000           0.000
  8690           6.000           0.000           0.000           4.493           0.000           0.000           0.000
  8700           6.000           0.000           0.000           4.498           0.000           0.000           0.000
  8710           6.000           0.000           0.000           4.503           0.000           0.000           0.000
  8720           6.000           0.000           0.000           4.509           0.000           0.000           0.000
  8730           6.000           0.000           0.000           4.514           0.000           0.000           0.000
  8740           6.000           0.000           0.000           4.519           0.000           0.000           0.000
  8750           6.000           0.000           0.000           4.524           0.000           0.000           0.000
  8760           6.000           0.000           0.000           4.529           0.000           0.000           0.000
  8770           6.000           0.000           0.000           4.535           0.000           0.000           0.000
  8780           6.000           0.000           0.000           4.540           0.000           0.000           0.000
  8790           6.000           0.000           0.000           4.545           0.000           0.000           0.000
  8800           6.000           0.000           0.000           4.550           0.000           0.000           0.000
  8810           6.000           0.000           0.000           4.555           0.000           0.000           0.000
  8820           6.000           0.000           0.000           4.560           0.000           0.000           0.000
  8830           6.000           0.000           0.000           4.566           0.000           0.000           0.000
  8840           6.000           0.000           0.000           4.571           0.000           0.000           0.000
  8850           6.000           0.000           0.000           4.576           0.000           0.000           0.000
  8860           6.000           0.000           0.000           4.581           0.000           0.000           0.000
  8870           6.000           0.000           0.000           4.586           0.000           0.000           0.000
  8880           6.000           0.000           0.000           4.591           0.000           0.000           0.000
  8890           6.000           0.000           0.000           4.597           0.000           0.000           0.000
  8900           6.000           0.000           0.000           4.602           0.000           0.000           0.000
  8910           6.000           0.000           0.000           4.607           0.000           0.000           0.000
  8920           6.000           0.000           0.000           4.612           0.000           0.000           0.000
  8930           6.000           0.000           0.000           4.617           0.000           0.000           0.000
  8940           6.000           0.000           0.000           4.622           0.000           0.000           0.000
  8950           6.000           0.000           0.000           4.628           0.000           0.000           0.000
  8960           6.000           0.000           0.000           4.633           0.000           0.000           0.000
  8970           6.000           0.000           0.000           4.638           0.000           0.000           0.000
  8980           6.000           0.000           0.000           4.643           0.000           0.000           0.000
  8990           6.000           0.000           0.000           4.648           0.000           0.000           0.000
  9000           6.000           0.000           0.000           4.653           0.000           0.000           0.000
  9010           6.000           0.000           0.000           4.659           0.000           0.000           0.000
  9020           6.000           0.000           0.000           4.664           0.000           0.000           0.000
  9030           6.000           0.000           0.000           4.669           0.000           0.000           0.000
  9040           6.000           0.000           0.000           4.674           0.000           0.000           0.000
  9050           6.000           0.000           0.000           4.679           0.000           0.000           0.000
  9060           6.000           0.000           0.000           4.684           0.000           0.000           0.000
  9070           6.000           0.000           0.000           4.690           0.000           0.000           0.000
  9080           6.000           0.000           0.000           4.695           0.000           0.000           0.000
  9090           6.000           0.000           0.000           4.700           0.000           0.000           0.000
  9100           6.000           0.000           0.000           4.705           0.000           0.000           0.000
  9110           6.000           0.000           0.000           4.710           0.000           0.000           0.000
  9120           6.000           0.000           0.000           4.715           0.000           0.000           0.000
  9130           6.000           0.000           0.000           4.721           0.000           0.000           0.000
  9140           6.000           0.000           0.000           4.726           0.000           0.000           0.000
  9150           6.000           0.000           0.000           4.731           0.000           0.000           0.000
  9160           6.000           0.000           0.000           4.736           0.000           0.000           0.000
  9170           6.000           0.000           0.000           4.741           0.000           0.000           0.000
  9180           6.000           0.000           0.000           4.747           0.000           0.000           0.000
  9190           6.000           0.000           0.000           4.752           0.000           0.000           0.000
  9200           6.000           0.000           0.000           4.757           0.000           0.000           0.000
  9210           6.000           0.000           0.000           4.762           0.000           0.000           0.000
  9220           6.000           0.000           0.000           4.767           0.000           0.000           0.000
  9230           6.000           0.000           0.000           4.772           0.000           0.000           0.000
  9240           6.000           0.000           0.000           4.778           0.000           0.000           0.000
  9250           6.000           0.000           0.000           4.783           0.000           0.000           0.000
  9260           6.000           0.000           0.000           4.788           0.000           0.000           0.000
  9270           6.000           0.000           0.000           4.793           0.000           0.000           0.000
  9280           6.000           0.000           0.000           4.798           0.000           0.000           0.000
  9290           6.000           0.000           0.000           4.803           0.000           0.000           0.000
  9300           6.000           0.000           0.000           4.809           0.000           0.000           0.000
  9310           6.000           0.000           0.000           4.814           0.000           0.000           0.000
  9320           6.000           0.000           0.000           4.819           0.000           0.000           0.000
  9330           6.000           0.000           0.000           4.824           0.000           0.000           0.000
  9340           6.000           0.000           0.000           4.829           0.000           0.000           0.000
  9350           6.000           0.000           0.000           4.834           0.000           0.000           0.000
  9360           6.000           0.000           0.000           4.840           0.000           0.000           0.000
  9370           6.000           0.000           0.000           4.845           0.000           0.000           0.000
  9380           6.000           0.000           0.000           4.850           0.000           0.000           0.000
  9390           6.000           0.000           0.000           4.855           0.000           0.000           0.000
  9400           6.000           0.000           0.000           4.860           0.000           0.000           0.000
  9410           6.000           0.000           0.000           4.865           0.000           0.000           0.000
  9420           6.000           0.000           0.000           4.871           0.000           0.000           0.000
  9430           6.000           0.000           0.000           4.876           0.000           0.000           0.000
  9440           6.000           0.000           0.000           4.881           0.000           0.000           0.000
  9450           6.000           0.000           0.000           4.886           0.000           0.000           0.000
  9460           6.000           0.000           0.000           4.891           0.000           0.000           0.000
  9470           6.000           0.000           0.000           4.896           0.000           0.000           0.000
  9480           6.000           0.000           0.000           4.902           0.000           0.000           0.000
  9490           6.000           0.000           0.000           4.907           0.000           0.000           0.000
  9500           6.000           0.000           0.000           4.912           0.000           0.000           0.000
  9510           6.000           0.000           0.000           4.917           0.000           0.000           0.000
  9520           6.000           0.000           0.000           4.922           0.000           0.000           0.000
  9530           6.000           0.000           0.000           4.927           0.000           0.000           0.000
  9540           6.000           0.000           0.000           4.933           0.000           0.000           0.000
  9550           6.000           0.000           0.000           4.938           0.000           0.000           0.000
  9560           6.000           0.000           0.000           4.943           0.000           0.000           0.000
  9570           6.000           0.000           0.000           4.948           0.000           0.000           0.000
  9580           6.000           0.000           0.000           4.953           0.000           0.000           0.000
  9590           6.000           0.000           0.000           4.958           0.000           0.000           0.000
  9600           6.000           0.000           0.000           4.964           0.000           0.000           0.000
  9610           6.000           0.000           0.000           4.969           0.000           0.000           0.000
  9620           6.000           0.000           0.000           4.974           0.000           0.000           0.000
  9630           6.000           0.000           0.000           4.979           0.000           0.000           0.000
  9640           6.000           0.000           0.000           4.984           0.000           0.000           0.000
  9650           6.000           0.000           0.000           4.990           0.000           0.000           0.000
  9660           6.000           0.000           0.000           4.995           0.000           0.000           0.000
  9670           6.000           0.000           0.000           5.000           0.000           0.000           0.000
  9680           6.000           0.000           0.000           5.005           0.000           0.000           0.000
  9690           6.000           0.000           0.000           5.010           0.000           0.000           0.000
  9700           6.000           0.000           0.000           5.015           0.000           0.000           0.000
  9710           6.000           0.000           0.000           5.021           0.000           0.000           0.000
  9720           6.000           0.000           0.000           5.026           0.000           0.000           0.000
  9730           6.000           0.000           0.000           5.031           0.000           0.000           0.000
  9740           6.000           0.000           0.000           5.036           0.000           0.000           0.000
  9750           6.000           0.000           0.000           5.041           0.000           0.000           0.000
  9760           6.000           0.000           0.000           5.046           0.000           0.000           0.000
  9770           6.000           0.000           0.000           5.052           0.000           0.000           0.000
  9780           6.000           0.000           0.000           5.057           0.000           0.000           0.000
  9790           6.000           0.000           0.000           5.062           0.000           0.000           0.000
  9800           6.000           0.000           0.000           5.067           0.000           0.000           0.000
  9810           6.000           0.000           0.000           5.072           0.000           0.000           0.000
  9820           6.000           0.000           0.000           5.077           0.000           0.000           0.000
  9830           6.000           0.000           0.000           5.083           0.000           0.000           0.000
  9840           6.000           0.000           0.000           5.088           0.000           0.000           0.000
  9850           6.000           0.000           0.000           5.093           0.000           0.000           0.000
  9860           6.000           0.000           0.000           5.098           0.000           0.000           0.000
  9870           6.000           0.000           0.000           5.103           0.000           0.000           0.000
  9880           6.000           0.000           0.000           5.108           0.000           0.000           0.000
  9890           6.000           0.000           0.000           5.114           0.000           0.000           0.000
  9900           6.000           0.000           0.000           5.119           0.000           0.000           0.000
  9910           6.000           0.000           0.000           5.124           0.000           0.000           0.000
  9920           6.000           0.000           0.000           5.129           0.000           0.000           0.000
  9930           6.000           0.000           0.000           5.134           0.000           0.000           0.000
  9940           6.000           0.000           0.000           5.139           0.000           0.000           0.000
  9950           6.000           0.000           0.000           5.145           0.000           0.000           0.000
  9960           6.000           0.000           0.000           5.150           0.000           0.000           0.000
  9970           6.000           0.000           0.000           5.155           0.000           0.000           0.000
  9980           6.000           0.000           0.000           5.160           0.000           0.000           0.000
  9990           6.000           0.000           0.000           5.165           0.000           0.000           0.000
 10000           6.000           0.000           0.000           5.170           0.000           0.000           0.000
